File: data_files/SrU2F12_Raman.txt
# SrU2F12 Raman spectrum
# X = Freq (cm^-1); Y = Polycrystalline Raman intensity (arb. units)
41.75       0.1
84.27       0.95
88.65       0.0
115.74      3.67
120.22      5.44
138.22      10.61
139.80      2.2
144.23      0.9
154.13      6.45
160.08      8.26
180.66      11.22
192.46      0.04
198.86      6.14
215.94      28.08
236.93      44.56
250.66      8.0
270.59      0.48
274.57      110.09
324.32      113.52
453.15      7.39
458.32      44.78
486.40      211.39
494.64      78.15
504.37      181.35
513.02      68.03
534.32      30.33
646.23      1000
653.24      13.5